File: Bg_sbtracted_data/bgsubtracted.csv
2theta,intensity
10.0,0.0
10.28,25.0377
10.56,47.0755
10.84,13.1132
11.12,0.0
11.4,33.1887
11.68,17.2265
11.96,31.2642
12.24,17.302
12.52,42.3397
12.8,28.3774
13.08,12.4152
13.36,49.4529
13.64,0.0
13.92,25.6283
14.2,81.0058
14.48,426.383
14.76,2654.76
15.04,277.138
15.32,55.5159
15.6,52.8935
15.88,8.27098
16.16,18.6485
16.44,0.0
16.72,24.4036
17.0,31.7811
17.28,10.1586
17.56,28.5362
17.84,35.9137
18.12,24.2912
18.4,7.66876
18.68,8.04629
18.96,20.4238
19.24,24.8013
19.52,16.1789
19.8,52.3228
20.08,53.4667
20.36,43.6106
20.64,62.7545
20.92,65.8984
21.2,50.0423
21.48,97.1862
21.76,129.33
22.04,66.474
22.32,54.6179
22.6,32.7618
22.88,32.9057
23.16,84.0496
23.44,67.1935
23.72,229.337
24.0,1158.48
24.28,5155.63
24.56,468.769
24.84,125.913
25.12,111.057
25.4,111.201
25.68,96.3447
25.96,70.4886
26.24,89.6325
26.52,33.7764
26.8,106.92
27.08,81.0642
27.36,71.5858
27.64,70.9444
27.92,74.303
28.2,249.662
28.48,1233.02
28.76,288.379
29.04,79.7374
29.32,119.096
29.6,578.455
29.88,1415.81
30.16,176.172
30.44,94.5305
30.72,579.889
31.0,75.2477
31.28,56.6063
31.56,30.9649
31.84,67.3235
32.12,47.6821
32.4,20.9998
32.68,36.1675
32.96,40.3353
33.24,16.5031
33.52,38.6708
33.8,85.8386
34.08,290.006
34.36,1210.17
34.64,1716.34
34.92,345.51
35.2,124.677
35.48,51.8452
35.76,71.0129
36.04,32.1807
36.32,7.34846
36.6,24.5162
36.88,19.684
37.16,0.0
37.44,104.02
37.72,385.187
38.0,155.355
38.28,80.5228
38.56,31.6906
38.84,36.8583
39.12,35.0261
39.4,39.1939
39.68,35.3616
39.96,26.5294
40.24,36.6972
40.52,35.1876
40.8,79.3985
41.08,37.6094
41.36,36.8202
41.64,66.0311
41.92,54.242
42.2,227.453
42.48,1042.66
42.76,1087.87
43.04,232.086
43.32,86.2964
43.6,70.5073
43.88,106.718
44.16,82.929
44.44,63.1399
44.72,83.3508
45.0,153.562
45.28,501.773
45.56,228.983
45.84,74.1943
46.12,38.4052
46.4,44.6161
46.68,37.827
46.96,41.0378
47.24,34.2487
47.52,0.0
47.8,35.6865
48.08,43.9421
48.36,44.1978
48.64,46.4535
48.92,76.7092
49.2,281.965
49.48,1129.22
49.76,991.476
50.04,248.732
50.32,129.988
50.6,84.2432
50.88,43.4989
51.16,82.7546
51.44,62.0102
51.72,136.266
52.0,463.522
52.28,232.777
52.56,73.0329
52.84,43.2886
53.12,10.5443
53.4,23.8
53.68,11.0556
53.96,25.1835
54.24,25.1835
54.52,216.183
54.8,57.1835
55.08,49.1835
55.36,101.183
55.64,250.183
55.92,550.183
56.2,249.183
56.48,93.1835
56.76,47.1835
57.04,85.1835
57.32,18.1835
57.6,17.1835
57.88,64.1835
58.16,177.183
58.44,97.1835
58.72,168.183
59.0,215.183
59.28,72.1835
59.56,31.1835
59.84,40.1835
60.12,35.1835
60.4,21.1835
60.68,52.779
60.96,44.4202
61.24,73.0615
61.52,187.703
61.8,470.344
62.08,199.985
62.36,47.6267
62.64,46.2679
62.92,24.9092
63.2,54.5505
63.48,67.1918
63.76,206.833
64.04,196.474
64.32,68.1156
64.6,57.7569
64.88,31.3982
65.16,45.0395
65.44,33.488
65.72,38.7437
66.0,53.9993
66.28,54.255
66.56,57.5107
66.84,142.766
67.12,350.022
67.4,505.278
67.68,257.533
67.96,127.789
68.24,122.045
68.52,57.3004
68.8,52.5561
69.08,80.8118
69.36,153.067
69.64,110.323
69.92,56.5788
70.2,17.8345
70.48,36.0901
70.76,31.3458
71.04,7.60148
71.32,36.8572
71.6,17.8512
71.88,40.6999
72.16,36.5485
72.44,137.397
72.72,120.246
73.0,85.0945
73.28,35.9432
73.56,38.7919
73.84,26.6406
74.12,26.4892
74.4,21.3379
74.68,40.1866
74.96,42.0352
75.24,33.8839
75.52,29.7326
75.8,31.5813
76.08,20.4299
76.36,21.2786
76.64,43.1273
76.92,44.976
77.2,49.8246
77.48,104.673
77.76,166.522
78.04,179.371
78.32,92.2193
78.6,68.068
78.88,53.9167
79.16,57.7653
79.44,81.614
79.72,109.463
80.0,97.3113
80.28,63.16
80.56,88.0087
80.84,54.8574
81.12,48.706
81.4,37.5547
81.68,38.4034
81.96,49.6836
82.24,48.7364
82.52,59.7892
82.8,188.842
83.08,230.895
83.36,167.948
83.64,74.0005
83.92,52.0534
84.2,60.1062
84.48,70.159
84.76,91.2118
85.04,84.2647
85.32,19.3175
85.6,28.3703
85.88,35.4232
86.16,29.476
86.44,0.0
86.72,25.5816
87.0,20.6345
87.28,51.6873
87.56,34.7401
87.84,77.7929
88.12,91.8458
88.4,58.8986
88.68,44.9514
88.96,58.0042
89.24,24.0571
89.52,24.1099
89.8,82.1627
90.0,38.4862